107
 Scenario Paris_plus

    ,      CO2,CO2NetLandUse,      CH4,      N2O,  SOXreg1,  SOXreg2,  SOXreg3,      CF4,     C2F6,   HFC125,  HFC134a,  HFC143a, HFC227ea, HFC245ca,      SF6,      NOx,   NMVOCs,       CO,       BC,       OC,
Year,   (Pg C),   (Pg C),     (Tg),   (Tg N),   (Tg S),   (Tg S),   (Tg S),   (kton),   (kton),   (kton),   (kton),   (kton),   (kton),   (kton),   (kton),   (Mt N),     (Mt),     (Mt),     (Mt),     (Mt),
1990,    6.1500,    1.4500,  312.2436,    6.1341,   32.5301,   16.2153,   15.2031,   11.9977,    2.0736,    0.1859,    1.0102,    0.8892,    0.0000,    0.0000,    7.7727,   34.7642,  166.2504, 1045.7471, 7405.1777,33195.0460
1991,    6.2400,    1.6500,  314.5788,    6.0279,   30.6653,   16.5653,   15.3995,   11.9979,    2.3729,    0.1909,    2.1776,    0.9026,    0.0047,    0.0000,    8.1438,   34.0580,  174.6873, 1021.7912, 7495.0881,33705.0772
1992,    6.1800,    1.6900,  321.9518,    6.3542,   28.3951,   16.4187,   15.7265,   11.9981,    2.3731,    0.2889,    4.2080,    1.6287,    0.0047,    0.0000,    8.1464,   36.1442,  182.6469, 1174.2038, 7585.1581,34212.1262
1993,    6.1700,    1.5600,  306.4879,    5.9053,   26.9472,   16.8470,   15.6468,   11.9984,    2.3734,    0.3768,    8.4162,    2.3686,    0.1850,    0.0000,    8.8864,   34.7127,  159.6833,  934.8376, 7675.3875,34716.1930
1994,    6.2800,    1.5200,  311.0534,    6.0182,   25.4668,   17.0152,   15.8613,   11.9986,    2.3736,    1.8251,   21.3991,    3.8348,    0.1820,    0.0000,    7.0454,   34.8194,  169.0260,  977.6207, 7765.7765,35217.2777
1995,    6.4200,    1.5000,  309.2884,    6.1180,   23.4804,   17.8622,   15.8437,   10.5017,    2.3739,    2.9802,   29.7261,    6.0410,    0.1000,    0.0000,    8.5226,   35.2873,  157.4352,  930.1041, 7856.3251,35715.3801
1996,    6.5500,    1.4800,  309.4056,    6.2160,   22.6818,   18.1665,   16.0813,   11.9991,    2.3741,    3.4189,   40.5849,    6.1500,    0.4370,    0.0000,    8.5252,   35.4169,  155.3429,  916.9780, 7831.1326,35639.8911
1997,    6.6600,    1.4600,  340.5237,    6.6219,   22.4491,   17.6280,   16.2998,   11.9993,    2.3743,    5.3540,   50.6436,    6.2587,    0.4080,    0.0000,    6.3155,   36.2914,  215.9517, 1232.7058, 7805.9019,35563.6786
1998,    6.6400,    1.4500,  315.3302,    6.4319,   21.7508,   17.4672,   16.1989,   11.9996,    2.3746,    7.2032,   59.6521,    6.3677,    0.9280,    0.0000,    6.6861,   36.9417,  167.0161, 1044.9354, 7780.6329,35486.7427
1999,    6.5800,    1.4100,  307.0371,    6.0869,   20.3560,   17.0044,   16.0355,   10.5027,    2.3748,    8.1532,   67.0440,    6.4775,    1.3539,    0.0000,    8.9007,   35.0650,  152.6935,  878.1883, 7755.3257,35409.0833
2000,    6.7500,    1.4300,  306.5595,    6.0386,   19.5551,   17.5661,   16.3756,   12.0001,    2.3749,    8.5381,   75.0393,    6.2340,    1.9509,   28.6811,    7.7972,   34.9813,  148.4220,  826.8782, 7729.9804,35330.7004
2001,    6.9100,    1.2400,  312.0868,    6.1300,   19.2187,   17.9840,   16.2932,   11.9250,    2.4345,    9.0301,   84.0409,    7.4947,    1.6449,   31.5493,    8.0236,   34.9512,  152.8746,  857.7294, 7845.5823,35605.1173
2002,    6.9800,    1.0700,  321.5222,    7.5058,   18.4069,   18.5504,   15.8549,   11.8481,    2.4915,    9.8852,   94.7161,    8.7389,    2.5080,   34.4174,    8.2497,   35.5752,  167.8805,  924.1844, 7961.1843,35879.5343
2003,    7.4000,    1.0400,  323.2090,    7.4412,   18.4181,   19.9903,   15.5687,   11.7693,    2.5463,   12.0788,  101.4157,    9.9776,    3.3410,   37.2856,    8.4757,   35.9383,  158.3399,  862.2988, 8076.7863,36153.9512
2004,    7.7800,    1.0200,  335.1411,    7.5996,   18.1031,   22.0240,   15.7751,   11.6885,    2.5990,   12.5073,  113.9297,   11.2136,    4.2690,   40.1536,    8.7015,   37.1364,  162.9481,  891.6340, 8192.3882,36428.3682
2005,    8.0900,    1.0000,  344.3606,    7.7386,   18.0322,   23.8057,   15.9899,   11.6059,    2.6494,   13.7591,  120.9334,   12.4483,    4.8901,   43.0216,    8.9270,   38.1765,  165.7588,  933.7838, 8307.9902,36702.7852
2010,    8.9037,    1.0768,  370.5953,    6.8191,   15.3376,   35.2765,   14.4568,    9.5976,    2.0842,   19.0089,  149.7109,   81.0364,    4.8956,    6.9322,    6.3186,   38.7807,  166.6350,  923.4136, 8355.5265,37674.4828
2011,    9.1334,   -0.7265,  370.5682,    6.8642,   14.8004,   35.5425,   14.5688,    9.3530,    2.0750,   19.1210,  166.9877,   86.8000,    4.9242,    6.6936,    6.3760,   38.3450,  168.3674,  918.3646, 8266.2311,37376.9783
2012,    9.3631,   -0.7938,  370.5411,    6.9093,   14.2631,   35.8085,   14.6809,    9.1084,    2.0657,   19.2331,  184.2644,   92.5636,    4.9529,    6.4551,    6.4335,   37.9094,  170.0999,  913.3156, 8176.9358,37079.4737
2013,    9.5927,   -0.8353,  370.5140,    6.9543,   13.7259,   36.0744,   14.7930,    8.8638,    2.0565,   19.3452,  201.5411,   98.3272,    4.9816,    6.2165,    6.4909,   37.4737,  171.8323,  908.2665, 8087.6405,36781.9692
2014,    9.8224,   -0.8584,  370.4869,    6.9994,   13.1886,   36.3404,   14.9050,    8.6192,    2.0473,   19.4573,  218.8179,  104.0908,    5.0102,    5.9780,    6.5483,   37.0381,  173.5648,  903.2175, 7998.3451,36484.4646
2015,   10.0521,   -0.8681,  370.4598,    7.0445,   12.6514,   36.6064,   15.0171,    8.3746,    2.0381,   19.5693,  236.0946,  109.8543,    5.0389,    5.7394,    6.6058,   36.6024,  175.2972,  898.1685, 7909.0498,36186.9601
2016,   10.1240,   -0.2972,  370.7642,    7.0652,   12.0446,   36.5586,   15.1145,    8.2870,    1.9949,   19.4637,  251.4079,  113.1569,    5.0113,    5.7834,    6.6011,   36.1157,  174.3329,  893.0276, 7808.4537,35998.6652
2017,   10.1960,   -0.2798,  371.0685,    7.0860,   11.4378,   36.5107,   15.2119,    8.1994,    1.9517,   19.3581,  266.7212,  116.4595,    4.9837,    5.8274,    6.5964,   35.6290,  173.3685,  887.8868, 7707.8576,35810.3703
2018,   10.2680,   -0.2611,  371.3729,    7.1067,   10.8311,   36.4629,   15.3092,    8.1118,    1.9084,   19.2525,  282.0344,  119.7620,    4.9561,    5.8713,    6.5917,   35.1423,  172.4042,  882.7460, 7607.2615,35622.0755
2019,   10.3399,   -0.2402,  371.6772,    7.1275,   10.2243,   36.4150,   15.4066,    8.0242,    1.8652,   19.1469,  297.3477,  123.0646,    4.9285,    5.9153,    6.5870,   34.6556,  171.4398,  877.6051, 7506.6654,35433.7806
2020,   10.4119,   -0.2172,  371.9815,    7.1482,    9.6175,   36.3672,   15.5040,    7.9365,    1.8220,   19.0412,  312.6610,  126.3672,    4.9009,    5.9593,    6.5823,   34.1689,  170.4754,  872.4643, 7406.0693,35245.4858
2021,   10.4346,   -0.3734,  372.0354,    7.1965,    9.3636,   36.0840,   15.4340,    7.7125,    1.8069,   19.1150,  331.8690,  120.1525,    4.9197,    6.1577,    6.2825,   33.8020,  170.1635,  867.7615, 7312.5309,34992.9922
2022,   10.4573,   -0.3604,  372.0892,    7.2449,    9.1098,   35.8008,   15.3640,    7.4885,    1.7919,   19.1888,  351.0769,  113.9379,    4.9386,    6.3562,    5.9826,   33.4350,  169.8515,  863.0588, 7218.9925,34740.4986
2023,   10.4800,   -0.3441,  372.1431,    7.2932,    8.8559,   35.5175,   15.2940,    7.2645,    1.7769,   19.2626,  370.2849,  107.7232,    4.9574,    6.5546,    5.6828,   33.0680,  169.5396,  858.3560, 7125.4541,34488.0050
2024,   10.5026,   -0.3256,  372.1969,    7.3415,    8.6020,   35.2343,   15.2239,    7.0405,    1.7619,   19.3363,  389.4929,  101.5085,    4.9762,    6.7531,    5.3829,   32.7010,  169.2276,  853.6532, 7031.9157,34235.5115
2025,   10.5253,   -0.3054,  372.2507,    7.3898,    8.3481,   34.9511,   15.1539,    6.8165,    1.7469,   19.4101,  408.7009,   95.2939,    4.9950,    6.9515,    5.0831,   32.3340,  168.9157,  848.9505, 6938.3773,33983.0179
2026,   10.5524,   -0.2368,  374.7444,    7.4602,    8.1435,   34.6611,   15.0810,    6.7302,    1.7517,   19.4821,  441.3888,  102.2653,    5.0134,    7.2924,    5.1957,   32.0306,  168.7126,  844.5031, 6856.5530,33755.2058
2027,   10.5795,   -0.2210,  377.2380,    7.5307,    7.9388,   34.3711,   15.0080,    6.6440,    1.7565,   19.5541,  474.0767,  109.2367,    5.0318,    7.6334,    5.3083,   31.7272,  168.5095,  840.0557, 6774.7286,33527.3938
2028,   10.6066,   -0.2043,  379.7317,    7.6012,    7.7342,   34.0811,   14.9350,    6.5577,    1.7613,   19.6262,  506.7647,  116.2081,    5.0502,    7.9743,    5.4209,   31.4239,  168.3064,  835.6084, 6692.9043,33299.5817
2029,   10.6337,   -0.1869,  382.2253,    7.6716,    7.5295,   33.7911,   14.8621,    6.4714,    1.7661,   19.6982,  539.4526,  123.1795,    5.0685,    8.3153,    5.5335,   31.1205,  168.1033,  831.1610, 6611.0800,33071.7697
2030,   10.6608,   -0.1690,  384.7190,    7.7421,    7.3249,   33.5011,   14.7891,    6.3852,    1.7709,   19.7702,  572.1405,  130.1510,    5.0869,    8.6562,    5.6461,   30.8171,  167.9002,  826.7136, 6529.2556,32843.9576
2031,   10.4756,   -0.0361,  381.3619,    7.7319,    7.0932,   32.5802,   14.4991,    6.1658,    1.7501,   19.8280,  551.2515,  125.7049,    5.1017,    8.4522,    5.5326,   30.2641,  167.1514,  821.6074, 6421.4765,32630.7662
2032,   10.2904,   -0.0244,  378.0048,    7.7218,    6.8615,   31.6593,   14.2092,    5.9465,    1.7293,   19.8858,  530.3624,  121.2589,    5.1165,    8.2482,    5.4190,   29.7112,  166.4026,  816.5011, 6313.6974,32417.5747
2033,   10.1052,   -0.0121,  374.6477,    7.7116,    6.6298,   30.7384,   13.9192,    5.7272,    1.7085,   19.9436,  509.4733,  116.8128,    5.1313,    8.0441,    5.3055,   29.1582,  165.6539,  811.3948, 6205.9183,32204.3833
2034,    9.9200,    0.0006,  371.2906,    7.7014,    6.3981,   29.8175,   13.6293,    5.5078,    1.6877,   20.0013,  488.5843,  112.3668,    5.1461,    7.8401,    5.1919,   28.6053,  164.9051,  806.2886, 6098.1391,31991.1918
2035,    9.7348,    0.0134,  367.9334,    7.6912,    6.1664,   28.8966,   13.3393,    5.2885,    1.6669,   20.0591,  467.6952,  107.9207,    5.1609,    7.6361,    5.0783,   28.0523,  164.1563,  801.1823, 5990.3600,31778.0004
2036,    9.5568,    0.3078,  368.1394,    7.7484,    5.9778,   28.1338,   13.1757,    5.2108,    1.6594,   20.1181,  477.5629,  109.9561,    5.1761,    7.7393,    5.0836,   27.5841,  163.5608,  795.9266, 5912.0812,31530.8718
2037,    9.3788,    0.3418,  368.3454,    7.8056,    5.7893,   27.3710,   13.0120,    5.1332,    1.6519,   20.1771,  487.4307,  111.9914,    5.1914,    7.8426,    5.0889,   27.1158,  162.9652,  790.6710, 5833.8023,31283.7433
2038,    9.2008,    0.3723,  368.5514,    7.8628,    5.6007,   26.6082,   12.8484,    5.0555,    1.6444,   20.2361,  497.2984,  114.0268,    5.2066,    7.9458,    5.0942,   26.6476,  162.3697,  785.4153, 5755.5235,31036.6147
2039,    9.0228,    0.4002,  368.7574,    7.9199,    5.4122,   25.8454,   12.6847,    4.9779,    1.6369,   20.2952,  507.1661,  116.0621,    5.2219,    8.0491,    5.0995,   26.1793,  161.7741,  780.1596, 5677.2447,30789.4862
2040,    8.8448,    0.4262,  368.9634,    7.9771,    5.2236,   25.0826,   12.5211,    4.9002,    1.6294,   20.3542,  517.0338,  118.0975,    5.2371,    8.1523,    5.1048,   25.7110,  161.1785,  774.9040, 5598.9658,30542.3577
2041,    8.6689,    0.3912,  368.8968,    8.0359,    5.1041,   24.4102,   12.4141,    4.8846,    1.6282,   20.4243,  526.2529,  120.0131,    5.2551,    8.2520,    5.1630,   25.3218,  160.4228,  770.3296, 5538.7051,30312.9085
2042,    8.4930,    0.4213,  368.8301,    8.0946,    4.9845,   23.7378,   12.3072,    4.8690,    1.6269,   20.4944,  535.4719,  121.9287,    5.2730,    8.3516,    5.2212,   24.9326,  159.6671,  765.7551, 5478.4444,30083.4594
2043,    8.3171,    0.4496,  368.7635,    8.1534,    4.8650,   23.0655,   12.2003,    4.8534,    1.6256,   20.5646,  544.6909,  123.8442,    5.2909,    8.4512,    5.2794,   24.5434,  158.9113,  761.1807, 5418.1837,29854.0102
2044,    8.1412,    0.4758,  368.6969,    8.2122,    4.7455,   22.3931,   12.0933,    4.8378,    1.6244,   20.6347,  553.9099,  125.7598,    5.3088,    8.5509,    5.3377,   24.1542,  158.1556,  756.6063, 5357.9229,29624.5611
2045,    7.9653,    0.5002,  368.6303,    8.2709,    4.6259,   21.7207,   11.9864,    4.8222,    1.6231,   20.7048,  563.1289,  127.6754,    5.3268,    8.6505,    5.3959,   23.7650,  157.3998,  752.0319, 5297.6622,29395.1119
2046,    7.8005,    0.1765,  369.5711,    8.3210,    4.5215,   21.1416,   11.9202,    4.8170,    1.6242,   20.7751,  573.6710,  129.8929,    5.3447,    8.7654,    5.4672,   23.4084,  156.5508,  747.4791, 5246.6345,29197.7362
2047,    7.6356,    0.1965,  370.5119,    8.3712,    4.4171,   20.5626,   11.8540,    4.8117,    1.6253,   20.8453,  584.2131,  132.1105,    5.3626,    8.8803,    5.5385,   23.0518,  155.7017,  742.9264, 5195.6067,29000.3605
2048,    7.4708,    0.2171,  371.4527,    8.4213,    4.3126,   19.9835,   11.7879,    4.8064,    1.6263,   20.9155,  594.7551,  134.3280,    5.3805,    8.9952,    5.6099,   22.6952,  154.8526,  738.3736, 5144.5790,28802.9847
2049,    7.3059,    0.2371,  372.3935,    8.4714,    4.2082,   19.4044,   11.7217,    4.8011,    1.6274,   20.9857,  605.2972,  136.5455,    5.3984,    9.1101,    5.6812,   22.3386,  154.0035,  733.8209, 5093.5513,28605.6090
2050,    7.1411,    0.2562,  373.3343,    8.5215,    4.1037,   18.8253,   11.6555,    4.7959,    1.6285,   21.0559,  615.8393,  138.7631,    5.4163,    9.2249,    5.7525,   21.9820,  153.1545,  729.2681, 5042.5235,28408.2333
2051,    6.9829,   -0.0725,  372.8392,    8.5371,    4.0122,   18.3326,   11.6094,    4.7900,    1.6277,   21.1219,  628.3727,  141.3922,    5.4331,    9.3573,    5.8206,   21.6751,  152.4904,  725.8300, 5002.1563,28253.7119
2052,    6.8247,   -0.0627,  372.3441,    8.5526,    3.9207,   17.8398,   11.5632,    4.7841,    1.6269,   21.1878,  640.9062,  144.0212,    5.4499,    9.4896,    5.8887,   21.3681,  151.8264,  722.3919, 4961.7891,28099.1906
2053,    6.6665,   -0.0517,  371.8490,    8.5682,    3.8292,   17.3471,   11.5170,    4.7782,    1.6262,   21.2538,  653.4397,  146.6503,    5.4667,    9.6220,    5.9568,   21.0612,  151.1624,  718.9538, 4921.4219,27944.6692
2054,    6.5083,   -0.0404,  371.3539,    8.5837,    3.7377,   16.8543,   11.4708,    4.7723,    1.6254,   21.3197,  665.9732,  149.2794,    5.4835,    9.7543,    6.0249,   20.7543,  150.4983,  715.5158, 4881.0547,27790.1479
2055,    6.3501,   -0.0292,  370.8588,    8.5992,    3.6462,   16.3616,   11.4246,    4.7664,    1.6246,   21.3857,  678.5067,  151.9085,    5.5003,    9.8867,    6.0930,   20.4474,  149.8343,  712.0777, 4840.6875,27635.6265
2056,    6.2064,   -0.1171,  370.0036,    8.6113,    3.5835,   15.9571,   11.3918,    4.7661,    1.6258,   21.4477,  692.2747,  154.8092,    5.5160,   10.0334,    6.1615,   20.1741,  149.3673,  709.2415, 4803.7042,27497.2286
2057,    6.0627,   -0.1060,  369.1483,    8.6234,    3.5207,   15.5527,   11.3589,    4.7659,    1.6270,   21.5097,  706.0426,  157.7099,    5.5318,   10.1800,    6.2301,   19.9008,  148.9003,  706.4053, 4766.7208,27358.8308
2058,    5.9191,   -0.0948,  368.2930,    8.6354,    3.4580,   15.1482,   11.3260,    4.7657,    1.6282,   21.5718,  719.8106,  160.6107,    5.5475,   10.3267,    6.2986,   19.6275,  148.4332,  703.5691, 4729.7375,27220.4329
2059,    5.7754,   -0.0840,  367.4378,    8.6475,    3.3952,   14.7438,   11.2931,    4.7654,    1.6294,   21.6338,  733.5785,  163.5114,    5.5633,   10.4734,    6.3671,   19.3542,  147.9662,  700.7330, 4692.7541,27082.0350
2060,    5.6318,   -0.0736,  366.5825,    8.6596,    3.3325,   14.3393,   11.2602,    4.7652,    1.6306,   21.6958,  747.3465,  166.4121,    5.5790,   10.6201,    6.4357,   19.0809,  147.4992,  697.8968, 4655.7708,26943.6371
2061,    5.4996,   -0.1581,  365.4844,    8.6683,    3.2847,   14.0158,   11.2680,    4.7630,    1.6307,   21.7465,  761.4375,  169.3834,    5.5919,   10.7698,    6.5012,   18.8586,  146.9352,  695.5776, 4622.7126,26823.6496
2062,    5.3675,   -0.1511,  364.3863,    8.6770,    3.2369,   13.6923,   11.2758,    4.7607,    1.6309,   21.7972,  775.5284,  172.3547,    5.6048,   10.9195,    6.5668,   18.6363,  146.3712,  693.2585, 4589.6544,26703.6621
2063,    5.2354,   -0.1440,  363.2882,    8.6856,    3.1890,   13.3688,   11.2835,    4.7585,    1.6311,   21.8479,  789.6194,  175.3261,    5.6176,   11.0692,    6.6324,   18.4140,  145.8072,  690.9393, 4556.5962,26583.6746
2064,    5.1033,   -0.1369,  362.1900,    8.6943,    3.1412,   13.0453,   11.2913,    4.7562,    1.6312,   21.8986,  803.7104,  178.2974,    5.6305,   11.2189,    6.6980,   18.1917,  145.2432,  688.6202, 4523.5380,26463.6871
2065,    4.9712,   -0.1301,  361.0919,    8.7030,    3.0934,   12.7218,   11.2990,    4.7540,    1.6314,   21.9493,  817.8014,  181.2687,    5.6433,   11.3685,    6.7635,   17.9695,  144.6792,  686.3011, 4490.4798,26343.6996
2066,    4.8536,   -0.1024,  360.5149,    8.7096,    3.0594,   12.4741,   11.3416,    4.7568,    1.6323,   22.0007,  832.2042,  184.3099,    5.6564,   11.5222,    6.8290,   17.7875,  144.2321,  684.3395, 4459.0733,26230.4420
2067,    4.7360,   -0.0972,  359.9380,    8.7163,    3.0254,   12.2264,   11.3842,    4.7596,    1.6333,   22.0521,  846.6071,  187.3511,    5.6694,   11.6758,    6.8944,   17.6055,  143.7849,  682.3779, 4427.6668,26117.1843
2068,    4.6184,   -0.0920,  359.3610,    8.7229,    2.9913,   11.9788,   11.4268,    4.7625,    1.6342,   22.1035,  861.0099,  190.3924,    5.6824,   11.8294,    6.9598,   17.4235,  143.3378,  680.4163, 4396.2602,26003.9267
2069,    4.5008,   -0.0869,  358.7840,    8.7296,    2.9573,   11.7311,   11.4694,    4.7653,    1.6351,   22.1548,  875.4127,  193.4336,    5.6954,   11.9831,    7.0253,   17.2415,  142.8906,  678.4547, 4364.8537,25890.6690
2070,    4.3832,   -0.0819,  358.2070,    8.7362,    2.9233,   11.4834,   11.5119,    4.7681,    1.6361,   22.2062,  889.8155,  196.4748,    5.7084,   12.1367,    7.0907,   17.0596,  142.4435,  676.4931, 4333.4472,25777.4114
2071,    4.2774,   -0.0845,  357.6645,    8.7417,    2.8964,   11.2900,   11.5705,    4.7741,    1.6379,   22.2471,  904.2617,  199.5275,    5.7187,   12.2897,    7.1531,   16.9123,  142.0236,  674.8961, 4305.0203,25676.0459
2072,    4.1716,   -0.0794,  357.1221,    8.7472,    2.8695,   11.0965,   11.6291,    4.7802,    1.6397,   22.2879,  918.7079,  202.5803,    5.7291,   12.4426,    7.2155,   16.7651,  141.6036,  673.2992, 4276.5934,25574.6805
2073,    4.0658,   -0.0743,  356.5796,    8.7527,    2.8426,   10.9031,   11.6877,    4.7862,    1.6415,   22.3287,  933.1541,  205.6330,    5.7394,   12.5956,    7.2778,   16.6178,  141.1837,  671.7022, 4248.1664,25473.3150
2074,    3.9600,   -0.0694,  356.0371,    8.7581,    2.8157,   10.7096,   11.7463,    4.7922,    1.6432,   22.3696,  947.6003,  208.6857,    5.7497,   12.7485,    7.3402,   16.4706,  140.7638,  670.1052, 4219.7395,25371.9496
2075,    3.8542,   -0.0646,  355.4947,    8.7636,    2.7888,   10.5162,   11.8049,    4.7983,    1.6450,   22.4104,  962.0465,  211.7384,    5.7601,   12.9015,    7.4026,   16.3233,  140.3439,  668.5082, 4191.3126,25270.5841
2076,    3.7587,   -0.0505,  354.8375,    8.7666,    2.7687,   10.3849,   11.8689,    4.8035,    1.6459,   22.4492,  975.5541,  214.5919,    5.7699,   13.0450,    7.4613,   16.1978,  139.9021,  667.2709, 4163.8764,25178.6947
2077,    3.6633,   -0.0471,  354.1803,    8.7697,    2.7486,   10.2537,   11.9330,    4.8088,    1.6467,   22.4881,  989.0617,  217.4454,    5.7797,   13.1884,    7.5199,   16.0723,  139.4602,  666.0335, 4136.4402,25086.8053
2078,    3.5678,   -0.0438,  353.5230,    8.7727,    2.7285,   10.1225,   11.9970,    4.8140,    1.6476,   22.5269, 1002.5692,  220.2989,    5.7895,   13.3319,    7.5785,   15.9468,  139.0184,  664.7961, 4109.0040,24994.9159
2079,    3.4724,   -0.0404,  352.8658,    8.7757,    2.7084,    9.9912,   12.0611,    4.8192,    1.6484,   22.5657, 1016.0768,  223.1524,    5.7993,   13.4754,    7.6372,   15.8213,  138.5765,  663.5588, 4081.5678,24903.0265
2080,    3.3769,   -0.0371,  352.2086,    8.7787,    2.6883,    9.8600,   12.1251,    4.8245,    1.6492,   22.6046, 1029.5844,  226.0059,    5.8092,   13.6189,    7.6958,   15.6958,  138.1346,  662.3214, 4054.1315,24811.1371
2081,    3.2904,   -0.0468,  351.6372,    8.7805,    2.6712,    9.8117,   12.1917,    4.8342,    1.6506,   22.6390, 1042.1993,  228.6725,    5.8179,   13.7534,    7.7548,   15.5898,  137.7391,  661.9544, 4028.5252,24733.1998
2082,    3.2038,   -0.0436,  351.0657,    8.7823,    2.6540,    9.7633,   12.2584,    4.8438,    1.6519,   22.6734, 1054.8142,  231.3392,    5.8266,   13.8879,    7.8138,   15.4838,  137.3435,  661.5874, 4002.9188,24655.2625
2083,    3.1172,   -0.0403,  350.4943,    8.7840,    2.6369,    9.7150,   12.3250,    4.8535,    1.6532,   22.7078, 1067.4291,  234.0059,    5.8353,   14.0225,    7.8727,   15.3777,  136.9479,  661.2205, 3977.3124,24577.3251
2084,    3.0306,   -0.0372,  349.9228,    8.7858,    2.6198,    9.6666,   12.3916,    4.8631,    1.6546,   22.7422, 1080.0440,  236.6725,    5.8441,   14.1570,    7.9317,   15.2717,  136.5523,  660.8535, 3951.7061,24499.3878
2085,    2.9440,   -0.0343,  349.3514,    8.7875,    2.6026,    9.6183,   12.4582,    4.8728,    1.6559,   22.7766, 1092.6589,  239.3392,    5.8528,   14.2915,    7.9907,   15.1657,  136.1567,  660.4865, 3926.0997,24421.4505
2086,    2.8653,   -0.0288,  348.3869,    8.7866,    2.5893,    9.5235,   12.5206,    4.8835,    1.6579,   22.8192, 1104.0525,  241.7542,    5.8637,   14.4160,    8.0464,   15.0602,  137.2844,  659.0383, 3901.5880,24350.4968
2087,    2.7865,   -0.0261,  347.4224,    8.7857,    2.5760,    9.4287,   12.5830,    4.8943,    1.6598,   22.8618, 1115.4462,  244.1693,    5.8746,   14.5405,    8.1022,   14.9546,  138.4121,  657.5900, 3877.0763,24279.5431
2088,    2.7078,   -0.0235,  346.4580,    8.7848,    2.5627,    9.3338,   12.6454,    4.9050,    1.6618,   22.9044, 1126.8398,  246.5843,    5.8855,   14.6650,    8.1579,   14.8491,  139.5398,  656.1417, 3852.5646,24208.5894
2089,    2.6290,   -0.0210,  345.4935,    8.7838,    2.5493,    9.2390,   12.7078,    4.9157,    1.6638,   22.9470, 1138.2334,  248.9994,    5.8964,   14.7895,    8.2137,   14.7436,  140.6675,  654.6935, 3828.0528,24137.6358
2090,    2.5502,   -0.0186,  344.5290,    8.7829,    2.5360,    9.1442,   12.7702,    4.9264,    1.6658,   22.9896, 1149.6270,  251.4144,    5.9073,   14.9139,    8.2694,   14.6380,  141.7953,  653.2452, 3803.5411,24066.6821
2091,    2.4767,   -0.0080,  344.9864,    8.7811,    2.5292,    9.1630,   12.8148,    4.9352,    1.6671,   23.0466, 1159.1523,  253.4326,    5.9219,   15.0214,    8.3152,   14.5401,  144.0516,  653.0375, 3778.1567,23997.6962
2092,    2.4032,   -0.0063,  345.4437,    8.7792,    2.5223,    9.1818,   12.8594,    4.9439,    1.6685,   23.1036, 1168.6777,  255.4508,    5.9366,   15.1289,    8.3611,   14.4422,  146.3080,  652.8297, 3752.7722,23928.7104
2093,    2.3296,   -0.0046,  345.9011,    8.7773,    2.5155,    9.2007,   12.9040,    4.9526,    1.6698,   23.1605, 1178.2031,  257.4689,    5.9513,   15.2364,    8.4069,   14.3443,  148.5643,  652.6219, 3727.3878,23859.7245
2094,    2.2561,   -0.0028,  346.3584,    8.7754,    2.5087,    9.2195,   12.9486,    4.9613,    1.6712,   23.2175, 1187.7285,  259.4871,    5.9660,   15.3439,    8.4527,   14.2463,  150.8207,  652.4142, 3702.0034,23790.7387
2095,    2.1826,   -0.0011,  346.8158,    8.7736,    2.5018,    9.2383,   12.9932,    4.9700,    1.6725,   23.2745, 1197.2539,  261.5053,    5.9807,   15.4514,    8.4986,   14.1484,  153.0770,  652.2064, 3676.6189,23721.7528
2096,    2.1186,    0.1200,  344.3588,    8.7738,    2.4846,    9.0840,   13.0098,    4.9664,    1.6692,   23.3189, 1206.7138,  263.4827,    5.9921,   15.5510,    8.5384,   14.0352,  152.0543,  649.5167, 3647.7911,23653.4447
2097,    2.0546,    0.1292,  341.9018,    8.7740,    2.4675,    8.9297,   13.0264,    4.9627,    1.6659,   23.3633, 1216.1738,  265.4602,    6.0034,   15.6507,    8.5783,   13.9221,  151.0315,  646.8269, 3618.9633,23585.1365
2098,    1.9906,    0.1371,  339.4448,    8.7742,    2.4503,    8.7754,   13.0430,    4.9590,    1.6625,   23.4077, 1225.6337,  267.4376,    6.0148,   15.7503,    8.6182,   13.8089,  150.0087,  644.1372, 3590.1355,23516.8283
2099,    1.9266,    0.1440,  336.9878,    8.7744,    2.4331,    8.6211,   13.0596,    4.9554,    1.6592,   23.4521, 1235.0937,  269.4151,    6.0262,   15.8500,    8.6580,   13.6957,  148.9860,  641.4475, 3561.3077,23448.5202
2100,    1.8626,    0.1501,  334.5308,    8.7746,    2.4159,    8.4668,   13.0762,    4.9517,    1.6559,   23.4965, 1244.5536,  271.3925,    6.0376,   15.9496,    8.6979,   13.5825,  147.9632,  638.7578, 3532.4799,23380.2120
